[Header]
Data File Name	D:\助燃剂标准品检验\2#煤油\千分一2#煤-乙.qgd
Output Date	2018/4/17
Output Time	17:58:19

[MS Chromatogram]
m/z	1-1 TIC
Event Time(msec)	200
# of Points	8700
Start Time(min)	3.000
End Time(min)	31.997
Ret.Time	Absolute Intensity	Relative Intensity
3.000	189418	3.40
3.003	189076	3.39
3.007	185240	3.33
3.010	177030	3.18
3.013	163802	2.94
3.017	148568	2.67
3.020	132802	2.38
3.023	116253	2.09
3.027	102050	1.83
3.030	90587	1.63
3.033	82661	1.48
3.037	78010	1.40
3.040	78009	1.40
3.043	82965	1.49
3.047	95200	1.71
3.050	112119	2.01
3.053	133066	2.39
3.057	158892	2.85
3.060	187249	3.36
3.063	214814	3.86
3.067	241029	4.33
3.070	265957	4.77
3.073	284533	5.11
3.077	292568	5.25
3.080	291228	5.23
3.083	284433	5.11
3.087	273775	4.91
3.090	260768	4.68
3.093	248484	4.46
3.097	240227	4.31
3.100	237685	4.27
3.103	242721	4.36
3.107	256408	4.60
3.110	275959	4.95
3.113	301812	5.42
3.117	333528	5.99
3.120	365110	6.55
3.123	393318	7.06
3.127	415755	7.46
3.130	433336	7.78
3.133	450122	8.08
3.137	462036	8.29
3.140	464543	8.34
3.143	461481	8.28
3.147	456214	8.19
3.150	445371	7.99
3.153	426947	7.66
3.157	406340	7.29
3.160	388778	6.98
3.163	379470	6.81
3.167	383006	6.88
3.170	402593	7.23
3.173	437173	7.85
3.177	484181	8.69
3.180	540551	9.70
3.183	600705	10.78
3.187	657431	11.80
3.190	700550	12.58
3.193	727926	13.07
3.197	735873	13.21
3.200	711074	12.76
3.203	654157	11.74
3.207	580455	10.42
3.210	502744	9.02
3.213	426993	7.66
3.217	354915	6.37
3.220	291203	5.23
3.223	239750	4.30
3.227	199885	3.59
3.230	169545	3.04
3.233	147413	2.65
3.237	133021	2.39
3.240	123620	2.22
3.243	118331	2.12
3.247	116043	2.08
3.250	114519	2.06
3.253	114186	2.05
3.257	115519	2.07
3.260	118301	2.12
3.263	122506	2.20
3.267	127627	2.29
3.270	132949	2.39
3.273	137543	2.47
3.277	142361	2.56
3.280	144254	2.59
3.283	142384	2.56
3.287	139601	2.51
3.290	135729	2.44
3.293	129232	2.32
3.297	121727	2.19
3.300	115940	2.08
3.303	113053	2.03
3.307	110803	1.99
3.310	110928	1.99
3.313	115777	2.08
3.317	122863	2.21
3.320	130394	2.34
3.323	139898	2.51
3.327	151704	2.72
3.330	160811	2.89
3.333	165685	2.97
3.337	169241	3.04
3.340	170016	3.05
3.343	167897	3.01
3.347	161638	2.90
3.350	151703	2.72
3.353	139345	2.50
3.357	127102	2.28
3.360	115393	2.07
3.363	103722	1.86
3.367	94499	1.70
3.370	87793	1.58
3.373	84185	1.51
3.377	81273	1.46
3.380	80222	1.44
3.383	81351	1.46
3.387	83529	1.50
3.390	86494	1.55
3.393	91890	1.65
3.397	98719	1.77
3.400	107063	1.92
3.403	117647	2.11
3.407	129218	2.32
3.410	142815	2.56
3.413	157917	2.83
3.417	172355	3.09
3.420	185272	3.33
3.423	197877	3.55
3.427	210882	3.79
3.430	222928	4.00
3.433	234199	4.20
3.437	243558	4.37
3.440	248932	4.47
3.443	248931	4.47
3.447	243361	4.37
3.450	230887	4.14
3.453	213443	3.83
3.457	192999	3.46
3.460	172349	3.09
3.463	155241	2.79
3.467	141584	2.54
3.470	130854	2.35
3.473	124459	2.23
3.477	124459	2.23
3.480	129074	2.32
3.483	136817	2.46
3.487	148149	2.66
3.490	159886	2.87
3.493	169730	3.05
3.497	179042	3.21
3.500	185757	3.33
3.503	188489	3.38
3.507	185669	3.33
3.510	180020	3.23
3.513	174982	3.14
3.517	171423	3.08
3.520	167341	3.00
3.523	167028	3.00
3.527	171276	3.07
3.530	180515	3.24
3.533	196843	3.53
3.537	219048	3.93
3.540	244507	4.39
3.543	269125	4.83
3.547	289105	5.19
3.550	301833	5.42
3.553	305192	5.48
3.557	301502	5.41
3.560	288564	5.18
3.563	266738	4.79
3.567	241255	4.33
3.570	216016	3.88
3.573	193097	3.47
3.577	174952	3.14
3.580	160937	2.89
3.583	153432	2.75
3.587	153809	2.76
3.590	165099	2.96
3.593	183993	3.30
3.597	209662	3.76
3.600	241280	4.33
3.603	274584	4.93
3.607	304986	5.47
3.610	328493	5.90
3.613	339936	6.10
3.617	339862	6.10
3.620	330328	5.93
3.623	317306	5.70
3.627	302292	5.43
3.630	284492	5.11
3.633	269820	4.84
3.637	265066	4.76
3.640	272092	4.88
3.643	292041	5.24
3.647	328586	5.90
3.650	381229	6.84
3.653	450802	8.09
3.657	536006	9.62
3.660	628905	11.29
3.663	724996	13.01
3.667	819160	14.70
3.670	900590	16.17
3.673	955389	17.15
3.677	979972	17.59
3.680	969348	17.40
3.683	919687	16.51
3.687	845492	15.18
3.690	759702	13.64
3.693	668938	12.01
3.697	582371	10.45
3.700	505803	9.08
3.703	442610	7.95
3.707	395829	7.11
3.710	367999	6.61
3.713	352681	6.33
3.717	345409	6.20
3.720	344791	6.19
3.723	348069	6.25
3.727	352394	6.33
3.730	352336	6.32
3.733	344270	6.18
3.737	328593	5.90
3.740	308118	5.53
3.743	283666	5.09
3.747	255085	4.58
3.750	224832	4.04
3.753	197542	3.55
3.757	174881	3.14
3.760	158326	2.84
3.763	147170	2.64
3.767	139957	2.51
3.770	139950	2.51
3.773	147172	2.64
3.777	158263	2.84
3.780	172301	3.09
3.783	190407	3.42
3.787	210474	3.78
3.790	230055	4.13
3.793	248204	4.46
3.797	263209	4.72
3.800	272691	4.89
3.803	274512	4.93
3.807	271733	4.88
3.810	267222	4.80
3.813	262954	4.72
3.817	255323	4.58
3.820	245213	4.40
3.823	234990	4.22
3.827	226971	4.07
3.830	219421	3.94
3.833	210848	3.78
3.837	203417	3.65
3.840	195533	3.51
3.843	188031	3.38
3.847	183066	3.29
3.850	181187	3.25
3.853	180981	3.25
3.857	183578	3.30
3.860	191920	3.45
3.863	203661	3.66
3.867	220473	3.96
3.870	241750	4.34
3.873	264214	4.74
3.877	284731	5.11
3.880	300863	5.40
3.883	310600	5.58
3.887	314074	5.64
3.890	310597	5.58
3.893	300913	5.40
3.897	289635	5.20
3.900	277675	4.98
3.903	266510	4.78
3.907	259925	4.67
3.910	261029	4.69
3.913	272252	4.89
3.917	293140	5.26
3.920	323521	5.81
3.923	360139	6.46
3.927	397931	7.14
3.930	433448	7.78
3.933	458203	8.23
3.937	471435	8.46
3.940	473314	8.50
3.943	460132	8.26
3.947	434753	7.80
3.950	401333	7.20
3.953	363241	6.52
3.957	331226	5.95
3.960	309171	5.55
3.963	295913	5.31
3.967	293750	5.27
3.970	300708	5.40
3.973	314013	5.64
3.977	329464	5.91
3.980	339655	6.10
3.983	344267	6.18
3.987	342043	6.14
3.990	331221	5.95
3.993	315803	5.67
3.997	299684	5.38
4.000	281724	5.06
4.003	264289	4.74
4.007	251822	4.52
4.010	246257	4.42
4.013	246372	4.42
4.017	254217	4.56
4.020	266736	4.79
4.023	279636	5.02
4.027	291819	5.24
4.030	305039	5.48
4.033	318601	5.72
4.037	332023	5.96
4.040	348653	6.26
4.043	367414	6.60
4.047	388763	6.98
4.050	414234	7.44
4.053	441696	7.93
4.057	470324	8.44
4.060	496769	8.92
4.063	519900	9.33
4.067	538800	9.67
4.070	551958	9.91
4.073	561001	10.07
4.077	563433	10.11
4.080	557036	10.00
4.083	543343	9.75
4.087	520482	9.34
4.090	489846	8.79
4.093	451596	8.11
4.097	412330	7.40
4.100	377074	6.77
4.103	344335	6.18
4.107	316591	5.68
4.110	298096	5.35
4.113	290878	5.22
4.117	298076	5.35
4.120	317475	5.70
4.123	344553	6.18
4.127	380223	6.83
4.130	420722	7.55
4.133	464430	8.34
4.137	506248	9.09
4.140	538730	9.67
4.143	561105	10.07
4.147	571686	10.26
4.150	566075	10.16
4.153	550749	9.89
4.157	530278	9.52
4.160	501286	9.00
4.163	464854	8.34
4.167	425442	7.64
4.170	384113	6.90
4.173	343096	6.16
4.177	304672	5.47
4.180	272785	4.90
4.183	244797	4.39
4.187	220312	3.95
4.190	200960	3.61
4.193	186093	3.34
4.197	176079	3.16
4.200	173936	3.12
4.203	187901	3.37
4.207	228157	4.10
4.210	301876	5.42
4.213	420755	7.55
4.217	601764	10.80
4.220	850995	15.28
4.223	1159618	20.82
4.227	1519807	27.28
4.230	1897520	34.06
4.233	2252213	40.43
4.237	2575368	46.23
4.240	2831371	50.83
4.243	2967513	53.27
4.247	2962969	53.19
4.250	2825270	50.72
4.253	2589155	46.48
4.257	2289827	41.10
4.260	1945731	34.93
4.263	1589558	28.53
4.267	1262250	22.66
4.270	988822	17.75
4.273	778759	13.98
4.277	627625	11.27
4.280	524325	9.41
4.283	460474	8.27
4.287	427650	7.68
4.290	417461	7.49
4.293	423224	7.60
4.297	436810	7.84
4.300	450654	8.09
4.303	457964	8.22
4.307	455248	8.17
4.310	443900	7.97
4.313	421222	7.56
4.317	388078	6.97
4.320	349029	6.27
4.323	307882	5.53
4.327	268433	4.82
4.330	233469	4.19
4.333	205271	3.68
4.337	185790	3.34
4.340	176159	3.16
4.343	173258	3.11
4.347	176576	3.17
4.350	185336	3.33
4.353	196206	3.52
4.357	208435	3.74
4.360	218235	3.92
4.363	223030	4.00
4.367	225334	4.04
4.370	225589	4.05
4.373	225684	4.05
4.377	225521	4.05
4.380	225545	4.05
4.383	229770	4.12
4.387	238869	4.29
4.390	252289	4.53
4.393	270239	4.85
4.397	290549	5.22
4.400	311391	5.59
4.403	330834	5.94
4.407	343899	6.17
4.410	350860	6.30
4.413	351067	6.30
4.417	345983	6.21
4.420	339326	6.09
4.423	330611	5.93
4.427	320356	5.75
4.430	309997	5.56
4.433	294567	5.29
4.437	277079	4.97
4.440	262004	4.70
4.443	249549	4.48
4.447	239078	4.29
4.450	232984	4.18
4.453	231752	4.16
4.457	232980	4.18
4.460	237016	4.25
4.463	243117	4.36
4.467	249557	4.48
4.470	256700	4.61
4.473	264752	4.75
4.477	274084	4.92
4.480	284294	5.10
4.483	294583	5.29
4.487	304745	5.47
4.490	318021	5.71
4.493	336692	6.04
4.497	359165	6.45
4.500	384116	6.90
4.503	412144	7.40
4.507	446738	8.02
4.510	486180	8.73
4.513	525909	9.44
4.517	562542	10.10
4.520	592173	10.63
4.523	615092	11.04
4.527	629996	11.31
4.530	633938	11.38
4.533	621684	11.16
4.537	595576	10.69
4.540	564128	10.13
4.543	531881	9.55
4.547	503149	9.03
4.550	481574	8.64
4.553	469388	8.43
4.557	466695	8.38
4.560	471698	8.47
4.563	479621	8.61
4.567	488459	8.77
4.570	497889	8.94
4.573	504632	9.06
4.577	504604	9.06
4.580	499726	8.97
4.583	496328	8.91
4.587	495234	8.89
4.590	495812	8.90
4.593	499724	8.97
4.597	508843	9.13
4.600	532395	9.56
4.603	578650	10.39
4.607	652384	11.71
4.610	757560	13.60
4.613	887125	15.92
4.617	1028044	18.45
4.620	1161518	20.85
4.623	1265762	22.72
4.627	1335823	23.98
4.630	1355534	24.33
4.633	1305917	23.44
4.637	1201571	21.57
4.640	1063711	19.09
4.643	912735	16.38
4.647	768929	13.80
4.650	645432	11.59
4.653	551996	9.91
4.657	489963	8.80
4.660	452936	8.13
4.663	429677	7.71
4.667	414358	7.44
4.670	403333	7.24
4.673	389330	6.99
4.677	367259	6.59
4.680	341398	6.13
4.683	317268	5.70
4.687	296498	5.32
4.690	283499	5.09
4.693	279949	5.03
4.697	283494	5.09
4.700	293108	5.26
4.703	314855	5.65
4.707	350259	6.29
4.710	396458	7.12
4.713	453280	8.14
4.717	516936	9.28
4.720	586171	10.52
4.723	660877	11.86
4.727	728284	13.07
4.730	776038	13.93
4.733	803185	14.42
4.737	807751	14.50
4.740	786845	14.12
4.743	739446	13.27
4.747	672199	12.07
4.750	598724	10.75
4.753	534917	9.60
4.757	490650	8.81
4.760	468373	8.41
4.763	462754	8.31
4.767	470049	8.44
4.770	489483	8.79
4.773	515138	9.25
4.777	537260	9.64
4.780	552352	9.92
4.783	565552	10.15
4.787	577422	10.37
4.790	580777	10.43
4.793	577545	10.37
4.797	573941	10.30
4.800	565552	10.15
4.803	549865	9.87
4.807	529068	9.50
4.810	503981	9.05
4.813	477480	8.57
4.817	451045	8.10
4.820	425965	7.65
4.823	403719	7.25
4.827	385744	6.92
4.830	374461	6.72
4.833	368585	6.62
4.837	368519	6.62
4.840	370836	6.66
4.843	376517	6.76
4.847	385569	6.92
4.850	396198	7.11
4.853	408518	7.33
4.857	419695	7.53
4.860	423722	7.61
4.863	419695	7.53
4.867	412350	7.40
4.870	404578	7.26
4.873	396768	7.12
4.877	389237	6.99
4.880	383396	6.88
4.883	385846	6.93
4.887	404424	7.26
4.890	436118	7.83
4.893	477654	8.57
4.897	529022	9.50
4.900	590403	10.60
4.903	659829	11.84
4.907	733339	13.16
4.910	801989	14.40
4.913	860434	15.45
4.917	898543	16.13
4.920	904240	16.23
4.923	883750	15.86
4.927	849429	15.25
4.930	801510	14.39
4.933	745161	13.38
4.937	690061	12.39
4.940	642098	11.53
4.943	605942	10.88
4.947	577789	10.37
4.950	548745	9.85
4.953	516681	9.27
4.957	485700	8.72
4.960	458822	8.24
4.963	432176	7.76
4.967	406367	7.29
4.970	389687	7.00
4.973	385311	6.92
4.977	394916	7.09
4.980	417119	7.49
4.983	442424	7.94
4.987	469647	8.43
4.990	494284	8.87
4.993	513027	9.21
4.997	525827	9.44
5.000	525881	9.44
5.003	513223	9.21
5.007	492040	8.83
5.010	458766	8.24
5.013	417326	7.49
5.017	377738	6.78
5.020	342742	6.15
5.023	313228	5.62
5.027	290794	5.22
5.030	278226	4.99
5.033	278163	4.99
5.037	285788	5.13
5.040	297242	5.34
5.043	310437	5.57
5.047	324738	5.83
5.050	337146	6.05
5.053	344662	6.19
5.057	347531	6.24
5.060	347315	6.23
5.063	342889	6.16
5.067	339466	6.09
5.070	337179	6.05
5.073	334207	6.00
5.077	331024	5.94
5.080	328891	5.90
5.083	328974	5.91
5.087	333233	5.98
5.090	342806	6.15
5.093	355552	6.38
5.097	367521	6.60
5.100	379494	6.81
5.103	387630	6.96
5.107	391514	7.03
5.110	395055	7.09
5.113	395495	7.10
5.117	395218	7.09
5.120	394767	7.09
5.123	395233	7.09
5.127	400425	7.19
5.130	406394	7.30
5.133	412955	7.41
5.137	422917	7.59
5.140	437430	7.85
5.143	453534	8.14
5.147	469795	8.43
5.150	493030	8.85
5.153	529395	9.50
5.157	583877	10.48
5.160	659894	11.85
5.163	756615	13.58
5.167	867059	15.56
5.170	980522	17.60
5.173	1073875	19.28
5.177	1134425	20.36
5.180	1169561	20.99
5.183	1170307	21.01
5.187	1130933	20.30
5.190	1059216	19.01
5.193	972993	17.47
5.197	887895	15.94
5.200	811296	14.56
5.203	752054	13.50
5.207	710012	12.75
5.210	686116	12.32
5.213	684188	12.28
5.217	687037	12.33
5.220	684315	12.28
5.223	676158	12.14
5.227	656425	11.78
5.230	624006	11.20
5.233	582449	10.46
5.237	532081	9.55
5.240	478214	8.58
5.243	430453	7.73
5.247	391107	7.02
5.250	360078	6.46
5.253	336930	6.05
5.257	318672	5.72
5.260	309998	5.56
5.263	313909	5.63
5.267	326963	5.87
5.270	347081	6.23
5.273	378516	6.79
5.277	422554	7.59
5.280	471347	8.46
5.283	520138	9.34
5.287	566574	10.17
5.290	605210	10.86
5.293	635240	11.40
5.297	661238	11.87
5.300	679140	12.19
5.303	685137	12.30
5.307	684966	12.30
5.310	682148	12.25
5.313	677009	12.15
5.317	668192	11.99
5.320	650387	11.67
5.323	621553	11.16
5.327	588210	10.56
5.330	552385	9.92
5.333	515312	9.25
5.337	485623	8.72
5.340	469184	8.42
5.343	470510	8.45
5.347	503053	9.03
5.350	570651	10.24
5.353	664363	11.93
5.357	774021	13.89
5.360	894333	16.05
5.363	1011405	18.16
5.367	1103565	19.81
5.370	1155313	20.74
5.373	1156167	20.75
5.377	1110578	19.94
5.380	1032638	18.54
5.383	934704	16.78
5.387	833633	14.96
5.390	749284	13.45
5.393	686283	12.32
5.397	640826	11.50
5.400	610782	10.96
5.403	593636	10.66
5.407	581884	10.45
5.410	569295	10.22
5.413	551870	9.91
5.417	533961	9.58
5.420	523284	9.39
5.423	522231	9.37
5.427	533976	9.59
5.430	569485	10.22
5.433	632018	11.35
5.437	714826	12.83
5.440	810215	14.54
5.443	908028	16.30
5.447	997570	17.91
5.450	1067712	19.17
5.453	1111024	19.94
5.457	1127103	20.23
5.460	1116839	20.05
5.463	1087016	19.51
5.467	1052081	18.89
5.470	1022836	18.36
5.473	997640	17.91
5.477	977551	17.55
5.480	956593	17.17
5.483	920819	16.53
5.487	870330	15.62
5.490	811473	14.57
5.493	753250	13.52
5.497	701881	12.60
5.500	661403	11.87
5.503	642729	11.54
5.507	648116	11.63
5.510	666394	11.96
5.513	690383	12.39
5.517	718748	12.90
5.520	748977	13.44
5.523	773185	13.88
5.527	788631	14.16
5.530	791378	14.21
5.533	773183	13.88
5.537	737090	13.23
5.540	692605	12.43
5.543	641791	11.52
5.547	586765	10.53
5.550	537364	9.65
5.553	498424	8.95
5.557	469869	8.43
5.560	452221	8.12
5.563	443728	7.97
5.567	444656	7.98
5.570	455890	8.18
5.573	468218	8.40
5.577	475621	8.54
5.580	473931	8.51
5.583	466290	8.37
5.587	458018	8.22
5.590	444902	7.99
5.593	426162	7.65
5.597	411804	7.39
5.600	403766	7.25
5.603	400854	7.20
5.607	402945	7.23
5.610	407195	7.31
5.613	414074	7.43
5.617	424957	7.63
5.620	434659	7.80
5.623	445636	8.00
5.627	466597	8.38
5.630	495210	8.89
5.633	526244	9.45
5.637	560546	10.06
5.640	597781	10.73
5.643	632825	11.36
5.647	661477	11.87
5.650	678984	12.19
5.653	678984	12.19
5.657	668517	12.00
5.660	654337	11.75
5.663	633909	11.38
5.667	612484	10.99
5.670	592752	10.64
5.673	574362	10.31
5.677	562450	10.10
5.680	560276	10.06
5.683	568227	10.20
5.687	587774	10.55
5.690	615709	11.05
5.693	648787	11.65
5.697	683853	12.28
5.700	715673	12.85
5.703	741290	13.31
5.707	759631	13.64
5.710	766012	13.75
5.713	767473	13.78
5.717	776324	13.94
5.720	791120	14.20
5.723	812836	14.59
5.727	843362	15.14
5.730	880660	15.81
5.733	920769	16.53
5.737	964470	17.31
5.740	1016374	18.24
5.743	1071545	19.23
5.747	1122303	20.15
5.750	1160257	20.83
5.753	1174630	21.09
5.757	1167945	20.97
5.760	1144930	20.55
5.763	1107765	19.89
5.767	1061538	19.06
5.770	1012318	18.17
5.773	973549	17.48
5.777	946948	17.00
5.780	920070	16.52
5.783	895212	16.07
5.787	884148	15.87
5.790	887857	15.94
5.793	901874	16.19
5.797	924223	16.59
5.800	956152	17.16
5.803	995195	17.86
5.807	1025726	18.41
5.810	1042991	18.72
5.813	1051852	18.88
5.817	1044721	18.75
5.820	1012416	18.17
5.823	962857	17.28
5.827	908111	16.30
5.830	852514	15.30
5.833	798873	14.34
5.837	752094	13.50
5.840	712374	12.79
5.843	681890	12.24
5.847	662458	11.89
5.850	649381	11.66
5.853	637271	11.44
5.857	621724	11.16
5.860	603651	10.84
5.863	588302	10.56
5.867	572438	10.28
5.870	554172	9.95
5.873	544717	9.78
5.877	554603	9.96
5.880	578538	10.39
5.883	613333	11.01
5.887	657769	11.81
5.890	708727	12.72
5.893	760309	13.65
5.897	804541	14.44
5.900	837141	15.03
5.903	850040	15.26
5.907	844512	15.16
5.910	831056	14.92
5.913	812675	14.59
5.917	791259	14.20
5.920	766813	13.76
5.923	739235	13.27
5.927	708756	12.72
5.930	674775	12.11
5.933	637072	11.44
5.937	600156	10.77
5.940	572217	10.27
5.943	556900	10.00
5.947	557778	10.01
5.950	588413	10.56
5.953	679981	12.21
5.957	866711	15.56
5.960	1169664	21.00
5.963	1607691	28.86
5.967	2190566	39.32
5.970	2884230	51.77
5.973	3621643	65.01
5.977	4335541	77.83
5.980	4952077	88.89
5.983	5386604	96.69
5.987	5570821	100.00
5.990	5514018	98.98
5.993	5237430	94.02
5.997	4704967	84.46
6.000	3961722	71.12
6.003	3173903	56.97
6.007	2469475	44.33
6.010	1888261	33.90
6.013	1455192	26.12
6.017	1173203	21.06
6.020	1004919	18.04
6.023	906567	16.27
6.027	843350	15.14
6.030	793865	14.25
6.033	758532	13.62
6.037	738713	13.26
6.040	730323	13.11
6.043	735303	13.20
6.047	758786	13.62
6.050	800201	14.36
6.053	851468	15.28
6.057	903592	16.22
6.060	946563	16.99
6.063	975151	17.50
6.067	993620	17.84
6.070	1006004	18.06
6.073	1002197	17.99
6.077	970956	17.43
6.080	922945	16.57
6.083	874230	15.69
6.087	822001	14.76
6.090	758986	13.62
6.093	694172	12.46
6.097	632373	11.35
6.100	573311	10.29
6.103	520403	9.34
6.107	474731	8.52
6.110	438593	7.87
6.113	413976	7.43
6.117	400163	7.18
6.120	396821	7.12
6.123	408941	7.34
6.127	435705	7.82
6.130	471876	8.47
6.133	516768	9.28
6.137	573250	10.29
6.140	637578	11.44
6.143	696978	12.51
6.147	745962	13.39
6.150	776206	13.93
6.153	774187	13.90
6.157	748579	13.44
6.160	709869	12.74
6.163	663398	11.91
6.167	615107	11.04
6.170	570893	10.25
6.173	538446	9.67
6.177	520466	9.34
6.180	520072	9.34
6.183	532346	9.56
6.187	551699	9.90
6.190	576641	10.35
6.193	602170	10.81
6.197	619256	11.12
6.200	632662	11.36
6.203	646002	11.60
6.207	650825	11.68
6.210	644323	11.57
6.213	637262	11.44
6.217	637271	11.44
6.220	640927	11.51
6.223	643898	11.56
6.227	648124	11.63
6.230	655372	11.76
6.233	662020	11.88
6.237	671432	12.05
6.240	689701	12.38
6.243	710220	12.75
6.247	728629	13.08
6.250	748370	13.43
6.253	767629	13.78
6.257	784565	14.08
6.260	790230	14.19
6.263	776456	13.94
6.267	748646	13.44
6.270	721340	12.95
6.273	699542	12.56
6.277	680261	12.21
6.280	662446	11.89
6.283	647962	11.63
6.287	637741	11.45
6.290	634625	11.39
6.293	634965	11.40
6.297	635326	11.40
6.300	635355	11.41
6.303	633829	11.38
6.307	627373	11.26
6.310	619996	11.13
6.313	609459	10.94
6.317	593195	10.65
6.320	574175	10.31
6.323	552927	9.93
6.327	532500	9.56
6.330	522852	9.39
6.333	529015	9.50
6.337	553089	9.93
6.340	598785	10.75
6.343	659700	11.84
6.347	725052	13.02
6.350	789929	14.18
6.353	845537	15.18
6.357	877012	15.74
6.360	879582	15.79
6.363	864980	15.53
6.367	846754	15.20
6.370	828503	14.87
6.373	817321	14.67
6.377	828518	14.87
6.380	872220	15.66
6.383	948183	17.02
6.387	1047415	18.80
6.390	1156266	20.76
6.393	1253538	22.50
6.397	1323215	23.75
6.400	1365934	24.52
6.403	1381931	24.81
6.407	1381182	24.79
6.410	1384496	24.85
6.413	1405096	25.22
6.417	1422299	25.53
6.420	1408838	25.29
6.423	1364558	24.49
6.427	1298034	23.30
6.430	1206618	21.66
6.433	1086381	19.50
6.437	957676	17.19
6.440	843732	15.15
6.443	746693	13.40
6.447	666864	11.97
6.450	600246	10.77
6.453	541408	9.72
6.457	496750	8.92
6.460	462639	8.30
6.463	435428	7.82
6.467	416677	7.48
6.470	406347	7.29
6.473	406546	7.30
6.477	418088	7.50
6.480	432021	7.76
6.483	442603	7.95
6.487	449828	8.07
6.490	454096	8.15
6.493	456151	8.19
6.497	455895	8.18
6.500	453732	8.14
6.503	452235	8.12
6.507	453027	8.13
6.510	459474	8.25
6.513	470747	8.45
6.517	490109	8.80
6.520	519676	9.33
6.523	553693	9.94
6.527	588908	10.57
6.530	627645	11.27
6.533	670252	12.03
6.537	709623	12.74
6.540	738529	13.26
6.543	750622	13.47
6.547	747434	13.42
6.550	736317	13.22
6.553	718973	12.91
6.557	698224	12.53
6.560	679646	12.20
